Wavelength(nm)	Transmittance_Experimental(%)	Transmittance_Fit(%)	Refractive_index	Extintion_coefficient
198.68	64.286	0	1	0
199.48	37.5	0	1	0
200.28	20	0	1	0
201.08	50	0	1	0
201.88	39.131	0	1	0
202.68	4.762	16.8947	1	0
203.48	54.546	23.8625	1	0
204.27	22.222	28.892	1	0
205.07	14.286	33.004	1	0
205.87	24	36.4765	1	0
206.67	17.647	39.4907	1	0
207.47	7.143	42.155	1	0
208.27	23.53	44.5411	1	0
209.07	13.889	46.6994	1	0
209.87	20	48.6668	1	0
210.67	2.703	50.4717	1	0
211.46	11.111	52.1161	1	0
212.26	21.569	53.6594	1	0
213.06	10	55.0946	1	0
213.86	10.527	56.4335	1	0
214.66	18.182	57.6865	1	0
215.46	-3.448	58.8622	1	0
216.25	12.308	59.9546	1	0
217.05	11.476	60.9975	1	0
217.85	8	61.9825	1	0
218.65	12.987	62.9144	1	0
219.45	9.639	63.7976	1	0
220.24	9.783	64.6256	1	0
221.04	13.402	65.4229	1	0
221.84	3.061	66.1816	1	0
222.64	11.321	66.9047	1	0
223.44	10.925	67.5946	1	0
224.23	7.752	68.2455	1	0
225.03	11.852	68.876	1	0
225.83	8.696	69.4793	1	0
226.63	3.268	70.0573	1	0
227.42	6.587	70.6047	1	0
228.22	4.52	71.1369	1	0
229.02	7.18	71.6479	1	0
229.81	6.599	72.1331	1	0
230.61	7.908	72.6059	1	0
231.41	4.425	73.0609	1	0
232.21	7.378	73.4992	1	0
233	8.109	73.9164	1	0
233.8	6.594	74.3241	1	0
234.6	6.86	74.7174	1	0
235.39	4.965	75.0926	1	0
236.19	8.451	75.4597	1	0
236.99	8.796	75.8145	1	0
237.78	6.537	76.1535	1	0
238.58	8.39	76.4858	1	0
239.37	10.424	76.8035	1	0
240.17	10.034	77.1151	1	0
240.97	9.153	77.4171	1	0
241.76	9.723	77.7063	1	0
242.56	8.681	77.9903	1	0
243.36	12.455	78.266	1	0
244.15	13.14	78.5302	1	0
244.95	16.425	78.79	1	0
245.74	15.415	79.0394	1	0
246.54	9.616	79.2848	1	0
247.34	14.718	79.5233	1	0
248.13	13.384	79.7524	1	0
248.93	15.13	79.9782	1	0
249.72	17.377	80.1952	1	0
250.52	15.755	80.4091	1	0
251.31	16.945	80.6148	1	0
252.11	17.433	80.8177	1	0
252.9	17.48	81.0131	1	0
253.7	18.935	81.2058	1	0
254.49	19.899	81.3915	1	0
255.29	18.812	81.5748	1	0
256.08	19.958	81.7514	1	0
256.88	21.339	81.926	1	0
257.67	22.544	82.0942	1	0
258.47	23.065	82.2606	1	0
259.26	23.151	82.421	1	0
260.06	23.607	82.5797	1	0
260.85	25.641	82.7328	1	0
261.65	26.25	82.8843	1	0
262.44	26.311	83.0306	1	0
263.24	28.193	83.1754	1	0
264.03	29.528	83.3153	1	0
264.83	30.715	83.4538	1	0
265.62	32.017	83.5877	1	0
266.41	31.608	83.7187	1	0
267.21	33.854	83.8485	1	0
268	35.128	83.974	1	0
268.8	36.693	84.0985	1	0
269.59	37.312	84.2189	1	0
270.38	39.352	84.3368	1	0
271.18	40.068	84.4538	1	0
271.97	42.21	84.567	1	0
272.77	44.414	84.6793	1	0
273.56	45.141	84.7881	1	0
274.35	47.541	84.8947	1	0
275.15	48.336	85.0006	1	0
275.94	49.602	85.1031	1	0
276.73	52.715	85.2037	1	0
277.53	53.252	85.3036	1	0
278.32	54.464	85.4004	1	0
279.11	55.812	85.4955	1	0
279.91	57.08	85.5899	1	0
280.7	59.341	85.6815	1	0
281.49	59.189	85.7714	1	0
282.29	59.511	85.8608	1	0
283.08	62.447	85.9475	1	0
283.87	62.94	86.0326	1	0
284.66	64.72	86.1163	1	0
285.46	68.842	86.1995	1	0
286.25	66.722	86.2803	1	0
287.04	68.059	86.3597	1	0
287.83	69.429	86.4377	1	0
288.63	69.874	86.5153	1	0
289.42	71.226	86.5907	1	0
290.21	73.568	86.6649	1	0
291	72.822	86.7378	1	0
291.8	72.39	86.8104	1	0
292.59	74.935	86.8809	1	0
293.38	75.142	86.9503	1	0
294.17	75.205	87.0186	1	0
294.96	77.06	87.0858	1	0
295.76	77.883	87.1527	1	0
296.55	78.959	87.2178	1	0
297.34	78.038	87.2818	1	0
298.13	78.885	87.3449	1	0
298.92	81.566	87.4069	1	0
299.71	81.971	87.468	1	0
300.51	83.127	87.529	1	0
301.3	80.887	87.5882	1	0
302.09	81.586	87.6466	1	0
302.88	84.188	87.7041	1	0
303.67	81.712	87.7607	1	0
304.46	83.584	87.8165	1	0
305.25	86.611	87.8715	1	0
306.04	83.667	87.9257	1	0
306.83	84.195	87.9791	1	0
307.63	85.004	88.0324	1	0
308.42	85.384	88.0842	1	0
309.21	85.981	88.1354	1	0
310	86.373	88.1858	1	0
310.79	85.79	88.2354	1	0
311.58	88.61	88.2844	1	0
312.37	86.687	88.3327	1	0
313.16	87.519	88.3804	1	0
313.95	88.538	88.4274	1	0
314.74	88.878	88.4737	1	0
315.53	88.668	88.5195	1	0
316.32	88.71	88.5646	1	0
317.11	88.231	88.6091	1	0
317.9	89.249	88.653	1	0
318.69	88.689	88.6963	1	0
319.48	89.528	88.739	1	0
320.27	88.167	88.7812	1	0
321.06	89.357	88.8228	1	0
321.85	86.78	88.8639	1	0
322.64	87.126	88.9045	1	0
323.43	90.73	88.9445	1	0
324.22	90.512	88.9841	1	0
325.01	89.057	89.0231	1	0
325.8	87.446	89.0616	1	0
326.59	89.458	89.0997	1	0
327.38	88.093	89.1373	1	0
328.17	89.716	89.1744	1	0
328.95	87.488	89.2106	1	0
329.74	88.973	89.2468	1	0
330.53	89.375	89.2825	1	0
331.32	89.675	89.3179	1	0
332.11	89.262	89.3528	1	0
332.9	87.889	89.3872	1	0
333.69	88.134	89.4213	1	0
334.48	89.798	89.4549	1	0
335.27	88.622	89.4882	1	0
336.05	89.261	89.5206	1	0
336.84	91.122	89.5531	1	0
337.63	90.246	89.5852	1	0
338.42	89.063	89.6169	1	0
339.21	91.099	89.6483	1	0
340	91.273	89.6793	1	0
340.78	91.273	89.7096	1	0
341.57	89.788	89.7398	1	0
342.36	90.455	89.7698	1	0
343.15	88.781	89.7994	1	0
343.94	90.091	89.8287	1	0
344.72	89.99	89.8573	1	0
345.51	89.718	89.8859	1	0
346.3	91.049	89.9142	1	0
347.09	88.578	89.9422	1	0
347.87	90.945	89.9695	1	0
348.66	89.258	89.9969	1	0
349.45	90.309	90.024	1	0
350.24	92.499	90.0508	1	0
351.02	91.413	90.077	1	0
351.81	91.567	90.1032	1	0
352.6	90.669	90.1292	1	0
353.38	93.169	90.1545	1	0
354.17	92.243	90.1799	1	0
354.96	90.878	90.205	1	0
355.75	91.914	90.2299	1	0
356.53	90.867	90.2542	1	0
357.32	91.333	90.2786	1	0
358.11	92.262	90.3027	1	0
358.89	92.459	90.3262	1	0
359.68	90.966	90.3498	1	0
360.47	91.943	90.3732	1	0
361.25	93.467	90.396	1	0
362.04	90.933	90.4189	1	0
362.82	91.77	90.4413	1	0
363.61	91.354	90.4637	1	0
364.4	92.448	90.4859	1	0
365.18	91.4	90.5076	1	0
365.97	92.747	90.5294	1	0
366.75	91.699	90.5507	1	0
367.54	90.617	90.572	1	0
368.33	92.859	90.5932	1	0
369.11	92.132	90.6138	1	0
369.9	89.579	90.6346	1	0
370.68	91.006	90.6548	1	0
371.47	91.659	90.6751	1	0
372.25	92.134	90.695	1	0
373.04	92.119	90.715	1	0
373.82	88.855	90.7345	1	0
374.61	92.133	90.754	1	0
375.4	92.494	90.7734	1	0
376.18	91.126	90.7924	1	0
376.97	92.116	90.8114	1	0
377.75	93.203	90.83	1	0
378.54	92.051	90.8486	1	0
379.32	93.382	90.8669	1	0
380.11	92.71	90.8852	1	0
380.89	91.521	90.9031	1	0
381.67	91.991	90.9209	1	0
382.46	92.642	90.9387	1	0
383.24	93.684	90.9561	1	0
384.03	91.492	90.9736	1	0
384.81	91.486	90.9908	1	0
385.6	91.662	91.0079	1	0
386.38	91.748	91.0248	1	0
387.17	92.564	91.0416	1	0
387.95	92.766	91.0582	1	0
388.73	92.176	91.0745	1	0
389.52	92.944	91.091	1	0
390.3	93.097	91.1071	1	0
391.09	91.524	91.1232	1	0
391.87	92.224	91.139	1	0
392.65	92.271	91.1547	1	0
393.44	91.996	91.1704	1	0
394.22	92.962	91.1858	1	0
395	91.85	91.2011	1	0
395.79	92.273	91.2164	1	0
396.57	92.692	91.2314	1	0
397.35	92.14	91.2463	1	0
398.14	91.511	91.2612	1	0
398.92	93.294	91.2759	1	0
399.7	91.591	91.2904	1	0
400.49	92.922	91.3049	1	0
401.27	94.115	91.3192	1	0
402.05	93.533	91.3333	1	0
402.84	91.775	91.3475	1	0
403.62	94.366	91.3615	1	0
404.4	92.952	91.3753	1	0
405.18	93.727	91.3889	1	0
405.97	92.323	91.4027	1	0
406.75	92.293	91.4161	1	0
407.53	91.585	91.4295	1	0
408.31	92.944	91.4427	1	0
409.1	93.495	91.456	1	0
409.88	93.183	91.4691	1	0
410.66	92.383	91.482	1	0
411.44	92.793	91.4948	1	0
412.22	93.536	91.5075	1	0
413.01	92.245	91.5203	1	0
413.79	92.694	91.5328	1	0
414.57	91.817	91.5453	1	0
415.35	92.887	91.5576	1	0
416.13	93.29	91.5698	1	0
416.92	91.822	91.5821	1	0
417.7	92.615	91.5941	1	0
418.48	93.636	91.6061	1	0
419.26	91.131	91.6179	1	0
420.04	92.83	91.6297	1	0
420.82	92.659	91.6413	1	0
421.6	91.527	91.6529	1	0
422.38	91.199	91.6644	1	0
423.17	92.296	91.676	1	0
423.95	92.238	91.6873	1	0
424.73	93.278	91.6985	1	0
425.51	92.437	91.7097	1	0
426.29	92.428	91.7207	1	0
427.07	92.538	91.7317	1	0
427.85	92.384	91.7426	1	0
428.63	93.35	91.7534	1	0
429.41	92.553	91.7642	1	0
430.19	93.145	91.7748	1	0
430.97	93.463	91.7854	1	0
431.75	91.358	91.7959	1	0
432.53	92.001	91.8063	1	0
433.31	91.729	91.8167	1	0
434.09	92.916	91.8269	1	0
434.87	93.127	91.8371	1	0
435.65	93.679	91.8472	1	0
436.43	92.635	91.8573	1	0
437.21	92.297	91.8673	1	0
437.99	92.292	91.8772	1	0
438.77	92.92	91.887	1	0
439.55	92.336	91.8968	1	0
440.33	91.469	91.9065	1	0
441.11	91.824	91.9161	1	0
441.89	94.092	91.9256	1	0
442.67	92.294	91.9351	1	0
443.45	91.505	91.9446	1	0
444.23	92.002	91.9539	1	0
445.01	91.79	91.9632	1	0
445.79	93.002	91.9724	1	0
446.57	92.674	91.9816	1	0
447.35	92.674	91.9907	1	0
448.12	92.155	91.9996	1	0
448.9	93.973	92.0086	1	0
449.68	94.015	92.0175	1	0
450.46	93.085	92.0263	1	0
451.24	92.22	92.0351	1	0
452.02	92.507	92.0439	1	0
452.8	92.27	92.0525	1	0
453.58	93.589	92.0611	1	0
454.35	92.782	92.0696	1	0
455.13	93.761	92.0781	1	0
455.91	93.357	92.0865	1	0
456.69	92.731	92.0949	1	0
457.47	93.478	92.1032	1	0
458.24	93.226	92.1114	1	0
459.02	93.278	92.1196	1	0
459.8	91.838	92.1278	1	0
460.58	90.573	92.1359	1	0
461.36	92.276	92.1439	1	0
462.13	92.962	92.1518	1	0
462.91	92.25	92.1598	1	0
463.69	92.732	92.1677	1	0
464.47	93.597	92.1755	1	0
465.24	90.699	92.1832	1	0
466.02	91.845	92.1909	1	0
466.8	91.986	92.1986	1	0
467.57	92.419	92.2062	1	0
468.35	92.547	92.2138	1	0
469.13	92.672	92.2213	1	0
469.91	92.644	92.2288	1	0
470.68	92.321	92.2361	1	0
471.46	92.848	92.2435	1	0
472.24	92.019	92.2509	1	0
473.01	92.101	92.2581	1	0
473.79	92.895	92.2654	1	0
474.57	93.158	92.2726	1	0
475.34	91.423	92.2797	1	0
476.12	93.481	92.2868	1	0
476.9	93.333	92.2939	1	0
477.67	93.288	92.3008	1	0
478.45	92.614	92.3078	1	0
479.22	93.982	92.3146	1	0
480	92.853	92.3216	1	0
480.78	92.577	92.3284	1	0
481.55	93.381	92.3351	1	0
482.33	93.089	92.3419	1	0
483.1	92.532	92.3486	1	0
483.88	92.371	92.3553	1	0
484.66	92.893	92.3619	1	0
485.43	92.411	92.3684	1	0
486.21	92.831	92.375	1	0
486.98	93.022	92.3815	1	0
487.76	92.999	92.388	1	0
488.53	92.617	92.3943	1	0
489.31	92.114	92.4007	1	0
490.08	91.296	92.407	1	0
490.86	91.908	92.4134	1	0
491.63	92.903	92.4196	1	0
492.41	92.442	92.4259	1	0
493.18	92.453	92.432	1	0
493.96	92.161	92.4382	1	0
494.73	92.488	92.4443	1	0
495.51	92.244	92.4504	1	0
496.28	93.275	92.4564	1	0
497.06	92.285	92.4624	1	0
497.83	91.854	92.4683	1	0
498.6	92.663	92.4742	1	0
499.38	94.136	92.4802	1	0
500.15	92.729	92.486	1	0
500.93	92.577	92.4919	1	0
501.7	92.294	92.4976	1	0
502.48	92.009	92.5034	1	0
503.25	92.545	92.5091	1	0
504.02	91.986	92.5148	1	0
504.8	92.585	92.5205	1	0
505.57	93.001	92.5261	1	0
506.34	92.184	92.5317	1	0
507.12	92.973	92.5373	1	0
507.89	93.328	92.5428	1	0
508.67	93.138	92.5483	1	0
509.44	93.267	92.5537	1	0
510.21	94.278	92.5591	1	0
510.99	94.022	92.5646	1	0
511.76	92.962	92.5699	1	0
512.53	92.524	92.5753	1	0
513.3	92.646	92.5805	1	0
514.08	94.011	92.5859	1	0
514.85	91.878	92.5911	1	0
515.62	93.663	92.5963	1	0
516.4	93.054	92.6015	1	0
517.17	92.934	92.6067	1	0
517.94	93.006	92.6118	1	0
518.71	93.049	92.6169	1	0
519.49	92.784	92.622	1	0
520.26	92.734	92.627	1	0
521.03	93.071	92.632	1	0
521.8	92.148	92.637	1	0
522.58	93.195	92.642	1	0
523.35	93.35	92.6469	1	0
524.12	93.9	92.6518	1	0
524.89	92.859	92.6567	1	0
525.66	92.459	92.6615	1	0
526.44	93.565	92.6664	1	0
527.21	92.853	92.6712	1	0
527.98	92.036	92.676	1	0
528.75	93.05	92.6807	1	0
529.52	94.347	92.6854	1	0
530.29	92.507	92.6901	1	0
531.07	93.128	92.6948	1	0
531.84	92.522	92.6995	1	0
532.61	93.736	92.7041	1	0
533.38	93.938	92.7087	1	0
534.15	92.983	92.7132	1	0
534.92	93.122	92.7178	1	0
535.69	92.968	92.7223	1	0
536.46	92.266	92.7268	1	0
537.23	92.123	92.7312	1	0
538	92.221	92.7357	1	0
538.78	91.987	92.7402	1	0
539.55	93.628	92.7446	1	0
540.32	93.28	92.749	1	0
541.09	92.746	92.7533	1	0
541.86	93.002	92.7576	1	0
542.63	92.74	92.7619	1	0
543.4	93.237	92.7662	1	0
544.17	93.145	92.7705	1	0
544.94	92.871	92.7747	1	0
545.71	92.443	92.779	1	0
546.48	92.846	92.7832	1	0
547.25	93.95	92.7873	1	0
548.02	93.963	92.7915	1	0
548.79	93.368	92.7956	1	0
549.56	92.677	92.7997	1	0
550.33	93.228	92.8038	1	0
551.1	93.71	92.8079	1	0
551.87	92.047	92.812	1	0
552.64	93.193	92.816	1	0
553.41	93.865	92.82	1	0
554.17	92.946	92.824	1	0
554.94	94.111	92.8279	1	0
555.71	93.959	92.8319	1	0
556.48	93.413	92.8358	1	0
557.25	92.781	92.8397	1	0
558.02	93.547	92.8436	1	0
558.79	92.65	92.8475	1	0
559.56	92.908	92.8514	1	0
560.33	93.011	92.8552	1	0
561.09	93.606	92.859	1	0
561.86	92.602	92.8628	1	0
562.63	92.727	92.8665	1	0
563.4	92.751	92.8703	1	0
564.17	92.33	92.874	1	0
564.94	93.131	92.8778	1	0
565.71	91.49	92.8815	1	0
566.47	93.239	92.8851	1	0
567.24	93.922	92.8888	1	0
568.01	92.825	92.8924	1	0
568.78	92.872	92.8961	1	0
569.55	92.755	92.8997	1	0
570.31	93.162	92.9033	1	0
571.08	92.987	92.9068	1	0
571.85	92.752	92.9104	1	0
572.62	93.365	92.914	1	0
573.38	93.13	92.9174	1	0
574.15	93.362	92.921	1	0
574.92	93.264	92.9245	1	0
575.69	93.459	92.9279	1	0
576.45	92.995	92.9314	1	0
577.22	93.058	92.9348	1	0
577.99	93.428	92.9382	1	0
578.75	93.451	92.9416	1	0
579.52	93.193	92.945	1	0
580.29	93.169	92.9484	1	0
581.05	93.253	92.9517	1	0
581.82	93.033	92.9551	1	0
582.59	92.997	92.9584	1	0
583.35	93.297	92.9617	1	0
584.12	93.322	92.965	1	0
584.89	93.129	92.9683	1	0
585.65	93.192	92.9715	1	0
586.42	93.466	92.9748	1	0
587.19	93.34	92.978	1	0
587.95	92.671	92.9812	1	0
588.72	93.092	92.9844	1	0
589.48	93.179	92.9876	1	0
590.25	93.771	92.9908	1	0
591.02	94.087	92.994	1	0
591.78	93.698	92.9971	1	0
592.55	93.123	93.0002	1	0
593.31	92.888	93.0033	1	0
594.08	93.343	93.0064	1	0
594.84	92.958	93.0095	1	0
595.61	92.614	93.0126	1	0
596.37	92.518	93.0156	1	0
597.14	92.199	93.0187	1	0
597.9	92.923	93.0217	1	0
598.67	92.508	93.0247	1	0
599.43	92.845	93.0277	1	0
600.2	93.836	93.0307	1	0
600.96	93.5	93.0337	1	0
601.73	92.443	93.0366	1	0
602.49	92.467	93.0396	1	0
603.26	92.544	93.0425	1	0
604.02	92.768	93.0454	1	0
604.79	92.851	93.0483	1	0
605.55	93.114	93.0512	1	0
606.32	93.235	93.0541	1	0
607.08	92.989	93.057	1	0
607.84	93.103	93.0598	1	0
608.61	93.347	93.0627	1	0
609.37	93.827	93.0655	1	0
610.14	93.26	93.0683	1	0
610.9	92.634	93.0711	1	0
611.66	93.677	93.0739	1	0
612.43	93.701	93.0767	1	0
613.19	92.869	93.0794	1	0
613.96	92.991	93.0822	1	0
614.72	93.379	93.0849	1	0
615.48	92.486	93.0876	1	0
616.25	93.041	93.0904	1	0
617.01	93.675	93.0931	1	0
617.77	92.658	93.0958	1	0
618.54	92.931	93.0985	1	0
619.3	93.218	93.1011	1	0
620.06	92.906	93.1038	1	0
620.82	92.909	93.1064	1	0
621.59	93.403	93.1091	1	0
622.35	92.476	93.1117	1	0
623.11	92.828	93.1143	1	0
623.88	92.988	93.1169	1	0
624.64	92.68	93.1195	1	0
625.4	92.671	93.1221	1	0
626.16	93.581	93.1246	1	0
626.93	92.96	93.1272	1	0
627.69	92.881	93.1297	1	0
628.45	92.886	93.1323	1	0
629.21	93.047	93.1348	1	0
629.97	92.677	93.1373	1	0
630.74	93.31	93.1398	1	0
631.5	92.688	93.1423	1	0
632.26	92.636	93.1448	1	0
633.02	93.272	93.1472	1	0
633.78	93.329	93.1497	1	0
634.55	93.338	93.1522	1	0
635.31	93.027	93.1546	1	0
636.07	93.43	93.157	1	0
636.83	93.046	93.1594	1	0
637.59	93.11	93.1618	1	0
638.35	93.666	93.1642	1	0
639.11	93.016	93.1666	1	0
639.87	93.45	93.169	1	0
640.64	93.187	93.1714	1	0
641.4	92.423	93.1737	1	0
642.16	92.735	93.1761	1	0
642.92	93.023	93.1784	1	0
643.68	93.411	93.1807	1	0
644.44	93.022	93.1831	1	0
645.2	93.817	93.1854	1	0
645.96	92.956	93.1877	1	0
646.72	93.177	93.19	1	0
647.48	92.744	93.1922	1	0
648.24	93.135	93.1945	1	0
649	93.395	93.1968	1	0
649.76	92.491	93.199	1	0
650.52	93.475	93.2013	1	0
651.28	92.437	93.2035	1	0
652.04	93.677	93.2057	1	0
652.8	93.359	93.2079	1	0
653.56	93.486	93.2101	1	0
654.32	93.286	93.2123	1	0
655.08	93.568	93.2145	1	0
655.84	93.554	93.2167	1	0
656.6	93.485	93.2189	1	0
657.36	93.321	93.221	1	0
658.12	93.712	93.2232	1	0
658.88	93.133	93.2254	1	0
659.64	93.688	93.2275	1	0
660.4	92.873	93.2296	1	0
661.16	92.997	93.2317	1	0
661.91	93.299	93.2338	1	0
662.67	92.822	93.2359	1	0
663.43	92.962	93.238	1	0
664.19	92.749	93.2401	1	0
664.95	93.006	93.2422	1	0
665.71	92.714	93.2443	1	0
666.47	93.343	93.2463	1	0
667.23	92.855	93.2484	1	0
667.98	93.123	93.2504	1	0
668.74	92.937	93.2525	1	0
669.5	91.813	93.2545	1	0
670.26	93.011	93.2565	1	0
671.02	93.005	93.2585	1	0
671.77	92.855	93.2605	1	0
672.53	92.709	93.2625	1	0
673.29	92.915	93.2645	1	0
674.05	93.152	93.2665	1	0
674.81	93.237	93.2685	1	0
675.56	92.999	93.2704	1	0
676.32	92.564	93.2724	1	0
677.08	92.624	93.2743	1	0
677.84	93.019	93.2763	1	0
678.59	92.643	93.2782	1	0
679.35	93.162	93.2801	1	0
680.11	93.216	93.2821	1	0
680.86	93.005	93.284	1	0
681.62	93.292	93.2859	1	0
682.38	92.707	93.2878	1	0
683.13	93.714	93.2897	1	0
683.89	92.87	93.2916	1	0
684.65	93.105	93.2934	1	0
685.4	93	93.2953	1	0
686.16	93.004	93.2972	1	0
686.92	93.057	93.299	1	0
687.67	93.516	93.3009	1	0
688.43	92.592	93.3027	1	0
689.19	93.205	93.3045	1	0
689.94	92.945	93.3064	1	0
690.7	92.332	93.3082	1	0
691.46	93.707	93.31	1	0
692.21	92.953	93.3118	1	0
692.97	92.345	93.3136	1	0
693.72	92.463	93.3154	1	0
694.48	93.026	93.3172	1	0
695.23	92.98	93.3189	1	0
695.99	93.152	93.3207	1	0
696.75	93.338	93.3225	1	0
697.5	93.006	93.3243	1	0
698.26	93.207	93.326	1	0
699.01	92.125	93.3277	1	0
699.77	92.921	93.3295	1	0
700.52	93.759	93.3312	1	0
701.28	92.815	93.333	1	0
702.03	92.752	93.3347	1	0
702.79	92.719	93.3364	1	0
703.54	93.064	93.3381	1	0
704.3	92.706	93.3398	1	0
705.05	93.721	93.3415	1	0
705.81	93.33	93.3432	1	0
706.56	93.225	93.3449	1	0
707.31	93.01	93.3465	1	0
708.07	92.665	93.3482	1	0
708.82	92.588	93.3499	1	0
709.58	92.539	93.3515	1	0
710.33	92.862	93.3532	1	0
711.09	92.659	93.3548	1	0
711.84	92.339	93.3565	1	0
712.59	92.656	93.3581	1	0
713.35	92.548	93.3597	1	0
714.1	92.69	93.3613	1	0
714.85	93.083	93.3629	1	0
715.61	92.626	93.3646	1	0
716.36	92.972	93.3662	1	0
717.11	93.473	93.3678	1	0
717.87	92.718	93.3694	1	0
718.62	93.065	93.3709	1	0
719.37	92.873	93.3725	1	0
720.13	93.336	93.3741	1	0
720.88	92.13	93.3757	1	0
721.63	92.552	93.3772	1	0
722.39	92.667	93.3788	1	0
723.14	92.977	93.3803	1	0
723.89	92.799	93.3819	1	0
724.64	93.12	93.3834	1	0
725.4	92.679	93.385	1	0
726.15	93.008	93.3865	1	0
726.9	93.414	93.388	1	0
727.65	93.441	93.3895	1	0
728.41	92.841	93.3911	1	0
729.16	93.185	93.3926	1	0
729.91	92.751	93.3941	1	0
730.66	92.886	93.3956	1	0
731.42	93.178	93.3971	1	0
732.17	92.944	93.3986	1	0
732.92	92.68	93.4	1	0
733.67	92.257	93.4015	1	0
734.42	93.399	93.403	1	0
735.17	93.127	93.4044	1	0
735.93	93.403	93.4059	1	0
736.68	93.484	93.4074	1	0
737.43	92.542	93.4088	1	0
738.18	93.178	93.4103	1	0
738.93	93.187	93.4117	1	0
739.68	93.01	93.4131	1	0
740.43	93.35	93.4146	1	0
741.18	92.613	93.416	1	0
741.94	93.278	93.4174	1	0
742.69	92.438	93.4189	1	0
743.44	93.23	93.4203	1	0
744.19	93.712	93.4217	1	0
744.94	93.595	93.4231	1	0
745.69	92.797	93.4245	1	0
746.44	92.906	93.4259	1	0
747.19	92.581	93.4272	1	0
747.94	93.03	93.4286	1	0
748.69	93.526	93.43	1	0
749.44	92.739	93.4314	1	0
750.19	92.72	93.4328	1	0
750.94	93.01	93.4341	1	0
751.69	93.491	93.4355	1	0
752.44	93.093	93.4368	1	0
753.19	93.449	93.4382	1	0
753.94	92.99	93.4395	1	0
754.69	92.968	93.4409	1	0
755.44	93.03	93.4422	1	0
756.19	92.845	93.4435	1	0
756.94	93.142	93.4449	1	0
757.69	93.46	93.4462	1	0
758.44	92.791	93.4475	1	0
759.18	93.42	93.4488	1	0
759.93	93.075	93.4501	1	0
760.68	93.137	93.4514	1	0
761.43	93.314	93.4527	1	0
762.18	93.941	93.454	1	0
762.93	92.385	93.4553	1	0
763.68	92.602	93.4566	1	0
764.43	92.815	93.4579	1	0
765.18	92.875	93.4592	1	0
765.92	93.055	93.4604	1	0
766.67	93.436	93.4617	1	0
767.42	93.161	93.463	1	0
768.17	93.372	93.4643	1	0
768.92	92.755	93.4655	1	0
769.66	93.386	93.4668	1	0
770.41	92.617	93.468	1	0
771.16	92.376	93.4693	1	0
771.91	92.97	93.4705	1	0
772.66	93.722	93.4717	1	0
773.4	92.896	93.473	1	0
774.15	93.474	93.4742	1	0
774.9	93.376	93.4754	1	0
775.65	92.813	93.4767	1	0
776.39	93.239	93.4779	1	0
777.14	92.675	93.4791	1	0
777.89	93.189	93.4803	1	0
778.64	92.529	93.4815	1	0
779.38	92.984	93.4827	1	0
780.13	93.271	93.4839	1	0
780.88	93.019	93.4851	1	0
781.62	93.443	93.4863	1	0
782.37	93.031	93.4875	1	0
783.12	93.047	93.4887	1	0
783.86	92.882	93.4898	1	0
784.61	92.915	93.491	1	0
785.36	92.755	93.4922	1	0
786.1	92.924	93.4933	1	0
786.85	92.546	93.4945	1	0
787.59	93.47	93.4957	1	0
788.34	93.156	93.4968	1	0
789.09	93.455	93.498	1	0
789.83	92.27	93.4991	1	0
790.58	92.867	93.5003	1	0
791.32	93.164	93.5014	1	0
792.07	92.9	93.5025	1	0
792.82	93.189	93.5037	1	0
793.56	92.689	93.5048	1	0
794.31	92.627	93.5059	1	0
795.05	92.707	93.5071	1	0
795.8	93.427	93.5082	1	0
796.54	93.11	93.5093	1	0
797.29	93.481	93.5104	1	0
798.03	93.004	93.5115	1	0
798.78	92.827	93.5126	1	0
799.52	92.617	93.5137	1	0
800.27	92.804	93.5148	1	0
801.01	93.353	93.5159	1	0
801.76	93.048	93.517	1	0
802.5	93.008	93.5181	1	0
803.25	93.251	93.5192	1	0
803.99	93.367	93.5203	1	0
804.73	93.004	93.5213	1	0
805.48	92.894	93.5224	1	0
806.22	93.082	93.5235	1	0
806.97	93.527	93.5246	1	0
807.71	93.598	93.5256	1	0
808.46	93.36	93.5267	1	0
809.2	93.319	93.5277	1	0
809.94	92.1	93.5288	1	0
810.69	92.746	93.5298	1	0
811.43	93.145	93.5309	1	0
812.17	93.063	93.5319	1	0
812.92	93.011	93.533	1	0
813.66	92.21	93.534	1	0
814.4	93.117	93.535	1	0
815.15	93.365	93.5361	1	0
815.89	92.585	93.5371	1	0
816.63	93.283	93.5381	1	0
817.38	93.158	93.5392	1	0
818.12	93.028	93.5402	1	0
818.86	92.327	93.5412	1	0
819.61	92.909	93.5422	1	0
820.35	93.349	93.5432	1	0
821.09	93.031	93.5442	1	0
821.83	92.917	93.5452	1	0
822.58	92.456	93.5462	1	0
823.32	92.821	93.5472	1	0
824.06	92.956	93.5482	1	0
824.8	92.803	93.5492	1	0
825.54	92.593	93.5502	1	0
826.29	93.52	93.5512	1	0
827.03	92.513	93.5522	1	0
827.77	92.985	93.5531	1	0
828.51	92.215	93.5541	1	0
829.25	92.92	93.5551	1	0
830	92.541	93.5561	1	0
830.74	92.087	93.557	1	0
831.48	92.561	93.558	1	0
832.22	92.835	93.559	1	0
832.96	93.084	93.5599	1	0
833.7	93.056	93.5609	1	0
834.44	92.611	93.5618	1	0
835.19	92.89	93.5628	1	0
835.93	93.137	93.5637	1	0
836.67	93.265	93.5647	1	0
837.41	92.522	93.5656	1	0
838.15	93.101	93.5666	1	0
838.89	92.946	93.5675	1	0
839.63	93.147	93.5684	1	0
840.37	92.842	93.5694	1	0
841.11	93.274	93.5703	1	0
841.85	92.278	93.5712	1	0
842.59	92.762	93.5721	1	0
843.33	93.184	93.5731	1	0
844.07	92.835	93.574	1	0
844.81	93.266	93.5749	1	0
845.55	93.888	93.5758	1	0
846.29	93.304	93.5767	1	0
847.03	92.679	93.5776	1	0
847.77	93.279	93.5785	1	0
848.51	93.161	93.5794	1	0
849.25	92.496	93.5803	1	0
849.99	92.804	93.5812	1	0
850.73	93.027	93.5821	1	0
851.47	92.624	93.583	1	0
852.21	93.081	93.5839	1	0
852.95	92.798	93.5848	1	0
853.69	92.766	93.5857	1	0
854.43	92.596	93.5865	1	0
855.17	92.88	93.5874	1	0
855.9	92.766	93.5883	1	0
856.64	93.472	93.5892	1	0
857.38	93.264	93.59	1	0
858.12	92.858	93.5909	1	0
858.86	93.208	93.5918	1	0
859.6	92.832	93.5926	1	0
860.34	93.249	93.5935	1	0
861.07	92.935	93.5943	1	0
861.81	92.887	93.5952	1	0
862.55	93.217	93.5961	1	0
863.29	93.083	93.5969	1	0
864.03	92.907	93.5978	1	0
864.76	93.177	93.5986	1	0
865.5	92.762	93.5994	1	0
866.24	93.17	93.6003	1	0
866.98	93.044	93.6011	1	0
867.72	93.363	93.602	1	0
868.45	92.757	93.6028	1	0
869.19	92.644	93.6036	1	0
869.93	92.775	93.6045	1	0
870.67	92.562	93.6053	1	0
871.4	92.889	93.6061	1	0
872.14	92.451	93.6069	1	0
872.88	92.865	93.6077	1	0
873.61	92.27	93.6086	1	0
874.35	93.088	93.6094	1	0
875.09	93.357	93.6102	1	0
875.82	93.054	93.611	1	0
876.56	92.226	93.6118	1	0
877.3	94.102	93.6126	1	0
878.03	93.002	93.6134	1	0
878.77	93.364	93.6142	1	0
879.51	93.81	93.615	1	0
880.24	93.084	93.6158	1	0
880.98	93.771	93.6166	1	0
881.71	92.703	93.6174	1	0
882.45	93.567	93.6182	1	0
883.19	92.654	93.619	1	0
883.92	93.318	93.6198	1	0
884.66	92.671	93.6205	1	0
885.39	93.495	93.6213	1	0
886.13	92.94	93.6221	1	0
886.86	93.255	93.6229	1	0
887.6	93.194	93.6237	1	0
888.34	93.261	93.6244	1	0
889.07	92.842	93.6252	1	0
889.81	93.043	93.626	1	0
890.54	93.873	93.6267	1	0
891.28	93.004	93.6275	1	0
892.01	93.36	93.6283	1	0
892.75	93.038	93.629	1	0
893.48	93.43	93.6298	1	0
894.22	93.211	93.6305	1	0
894.95	92.643	93.6313	1	0
895.68	93.235	93.632	1	0
896.42	93.644	93.6328	1	0
897.15	92.68	93.6335	1	0
897.89	92.814	93.6343	1	0
898.62	92.852	93.635	1	0
899.36	93.646	93.6358	1	0
900.09	92.844	93.6365	1	0
900.82	92.682	93.6372	1	0
901.56	91.334	93.638	1	0
902.29	92.995	93.6387	1	0
903.03	92.957	93.6394	1	0
903.76	93.307	93.6402	1	0
904.49	92.676	93.6409	1	0
905.23	93.243	93.6416	1	0
905.96	93.706	93.6423	1	0
906.69	93.291	93.6431	1	0
907.43	92.504	93.6438	1	0
908.16	93.607	93.6445	1	0
908.89	93.375	93.6452	1	0
909.62	92.942	93.6459	1	0
910.36	93.299	93.6466	1	0
911.09	92.514	93.6473	1	0
911.82	92.689	93.6481	1	0
912.56	93.654	93.6488	1	0
913.29	93.789	93.6495	1	0
914.02	92.68	93.6502	1	0
914.75	92.387	93.6509	1	0
915.49	93.03	93.6516	1	0
916.22	93.085	93.6523	1	0
916.95	93.91	93.653	1	0
917.68	92.955	93.6536	1	0
918.41	93.213	93.6543	1	0
919.15	92.981	93.655	1	0
919.88	92.746	93.6557	1	0
920.61	92.192	93.6564	1	0
921.34	92.35	93.6571	1	0
922.07	93.551	93.6578	1	0
922.8	92.978	93.6584	1	0
923.54	93.072	93.6591	1	0
924.27	92.747	93.6598	1	0
925	94.017	93.6605	1	0
925.73	93.342	93.6611	1	0
926.46	93.142	93.6618	1	0
927.19	91.758	93.6625	1	0
927.92	92.705	93.6632	1	0
928.65	93.597	93.6638	1	0
929.38	93.284	93.6645	1	0
930.11	93.585	93.6651	1	0
930.85	92.453	93.6658	1	0
931.58	91.989	93.6665	1	0
932.31	93.193	93.6671	1	0
933.04	92.224	93.6678	1	0
933.77	92.391	93.6684	1	0
934.5	92.885	93.6691	1	0
935.23	93.27	93.6697	1	0
935.96	92.456	93.6704	1	0
936.69	93.022	93.671	1	0
937.42	93.337	93.6717	1	0
938.15	93.055	93.6723	1	0
938.88	93.691	93.673	1	0
939.61	93.322	93.6736	1	0
940.34	92.595	93.6742	1	0
941.06	93.324	93.6749	1	0
941.79	92.299	93.6755	1	0
942.52	92.89	93.6761	1	0
943.25	93.461	93.6768	1	0
943.98	93.247	93.6774	1	0
944.71	93.318	93.678	1	0
945.44	92.494	93.6787	1	0
946.17	92.907	93.6793	1	0
946.9	92.386	93.6799	1	0
947.63	92.953	93.6805	1	0
948.35	92.157	93.6811	1	0
949.08	93.465	93.6818	1	0
949.81	92.699	93.6824	1	0
950.54	92.464	93.683	1	0
951.27	93.03	93.6836	1	0
952	92.74	93.6842	1	0
952.72	93.336	93.6848	1	0
953.45	93.357	93.6855	1	0
954.18	93.503	93.6861	1	0
954.91	93.078	93.6867	1	0
955.64	93.173	93.6873	1	0
956.36	92.117	93.6879	1	0
957.09	92.469	93.6885	1	0
957.82	93.548	93.6891	1	0
958.55	93.005	93.6897	1	0
959.27	93.162	93.6903	1	0
960	92.325	93.6909	1	0
960.73	92.675	93.6915	1	0
961.45	92.553	93.6921	1	0
962.18	92.801	93.6926	1	0
962.91	93.437	93.6932	1	0
963.64	92.764	93.6938	1	0
964.36	92.928	93.6944	1	0
965.09	91.68	93.695	1	0
965.82	92.849	93.6956	1	0
966.54	93.044	93.6962	1	0
967.27	92.385	93.6967	1	0
968	93.539	93.6973	1	0
968.72	91.848	93.6979	1	0
969.45	93.246	93.6985	1	0
970.17	92.754	93.699	1	0
970.9	93.987	93.6996	1	0
971.63	92.417	93.7002	1	0
972.35	93.401	93.7008	1	0
973.08	93.584	93.7013	1	0
973.8	93.13	93.7019	1	0
974.53	92.231	93.7025	1	0
975.25	93.6	93.703	1	0
975.98	93.333	93.7036	1	0
976.7	92.575	93.7042	1	0
977.43	92.684	93.7047	1	0
978.16	92.582	93.7053	1	0
978.88	92.978	93.7058	1	0
979.61	92.357	93.7064	1	0
980.33	93.59	93.707	1	0
981.06	-125	93.7075	1	0
981.78	-100	93.7081	1	0
982.5	-166.666	93.7086	1	0
983.23	-33.333	93.7092	1	0
983.95	72.727	93.7097	1	0
984.68	110	93.7103	1	0
985.4	50	93.7108	1	0
986.13	71.429	93.7114	1	0
986.85	84.615	93.7119	1	0
987.57	20	93.7124	1	0
988.3	91.916	93.713	1	0
989.02	92.825	93.7135	1	0
989.75	92.007	93.7141	1	0
990.47	93.192	93.7146	1	0
991.19	92.798	93.7151	1	0
991.92	92.878	93.7157	1	0
992.64	266.666	93.7162	1	0
993.36	150	93.7167	1	0
994.09	-50	93.7173	1	0
994.81	75	93.7178	1	0
